# XDI/1.0  Demeter/0.9.13
# Demeter::Data=HASH(0xae7b69c)
# Athena.element:              As
# Athena.edge:                 k
# Athena.e0:                   11867.07
# Athena.eshift:               1.3
# Athena.rbkg:                 1.0
# Athena.standard:             None
# Athena.bkg_kweight:          2
# Athena.edge_step:            0.0034826
# Athena.fixed_step:           no
# Athena.flatten:              yes
# Athena.pre_edge_range:       -150.000 -30.000
# Athena.pre_edge_line:        -0.004289 + 3.64869e-007 * energy
# Athena.normalization_range:  150.000 208.966
# Athena.post_edge_polynomial: 0.045165 - 3.50902e-006 * en + 0 * en^2
# Athena.spline_range_energy:  0.000 308.952
# Athena.clamps:               0/24
# Athena.spline_range_k:       0.000 9.005
# Athena.kweight:              2
# Athena.window:               hanning
# Athena.phase_correction:     0
# Athena.k_range:              3.000 7.005
# Athena.dk:                   1
# Athena.r_range:              1 3
# Athena.dr:                   0.0
# Athena.window:               hanning
# Athena.plot_multiplier:      1
# Athena.y_offset:             0
# ///
#------------------------
#   e         norm        nbkg        flat        fbkg        nder        nsec
  11772.380       0.10610602E-02   0.10610448E-02   0.10610486E-02   0.10610448E-02  -0.86115907E-04   0.24539822E-05
  11777.380       0.63048065E-03   0.63046992E-03   0.63047379E-03   0.63046992E-03  -0.73845996E-04   0.27101139E-05
  11782.379       0.32267407E-03   0.32266669E-03   0.32267056E-03   0.32266669E-03  -0.59017479E-04   0.67609271E-06
  11787.379       0.40364879E-04   0.40360564E-04   0.40364440E-04   0.40360564E-04  -0.67085745E-04   0.34618149E-06
  11792.378      -0.34811629E-03  -0.34811639E-03  -0.34811251E-03  -0.34811639E-03  -0.55556010E-04   0.40207452E-05
  11797.378      -0.51513966E-03  -0.51513794E-03  -0.51513406E-03  -0.51513794E-03  -0.26882313E-04   0.29256544E-05
  11802.377      -0.61691255E-03  -0.61690972E-03  -0.61690584E-03  -0.61690972E-03  -0.26302391E-04  -0.34265858E-06
  11807.377      -0.77813728E-03  -0.77813270E-03  -0.77812882E-03  -0.77813270E-03  -0.30308557E-04   0.22444946E-05
  11812.376      -0.91996780E-03  -0.91996169E-03  -0.91995780E-03  -0.91996169E-03  -0.38596902E-05   0.61902846E-05
  11817.376      -0.81673032E-03  -0.81672533E-03  -0.81672144E-03  -0.81672533E-03   0.31588099E-04   0.82071352E-05
  11822.375      -0.60411840E-03  -0.60411572E-03  -0.60411183E-03  -0.60411572E-03   0.78203455E-04   0.96580958E-05
  11827.374      -0.34852176E-04  -0.34855686E-04  -0.34851797E-04  -0.34855686E-04   0.12814974E-03   0.11552707E-04
  11832.374       0.67725085E-03   0.67723960E-03   0.67724349E-03   0.67723960E-03   0.19371897E-03   0.23214335E-04
  11837.373       0.19021438E-02   0.19021193E-02   0.19021232E-02   0.19021193E-02   0.36026988E-03   0.36561478E-04
  11842.373       0.42795893E-02   0.42795389E-02   0.42795428E-02   0.42795389E-02   0.55929720E-03   0.33694777E-04
  11847.372       0.74945565E-02   0.74944711E-02   0.74944750E-02   0.74944711E-02   0.69718395E-03   0.16093239E-03
  11847.872       0.81134039E-02   0.81133118E-02   0.81133157E-02   0.81133118E-02   0.14442644E-02   0.72296080E-03
  11848.372       0.89388209E-02   0.89387198E-02   0.89387237E-02   0.89387198E-02   0.14201448E-02  -0.42871578E-03
  11848.872       0.95335487E-02   0.95334411E-02   0.95334450E-02   0.95334411E-02   0.10155486E-02  -0.66055945E-03
  11849.372       0.99543695E-02   0.99542574E-02   0.99542613E-02   0.99542574E-02   0.75958530E-03   0.40461249E-03
  11849.872       0.10293134E-01   0.10293018E-01   0.10293022E-01   0.10293018E-01   0.14201611E-02   0.11248192E-02
  11850.372       0.11374531E-01   0.11374403E-01   0.11374407E-01   0.11374403E-01   0.18844045E-02  -0.26131292E-03
  11850.872       0.12177538E-01   0.12177402E-01   0.12177406E-01   0.12177402E-01   0.11588482E-02  -0.32602422E-03
  11851.372       0.12533379E-01   0.12533239E-01   0.12533243E-01   0.12533239E-01   0.15583803E-02   0.89606183E-03
  11851.872       0.13735919E-01   0.13735766E-01   0.13735769E-01   0.13735766E-01   0.20549100E-02   0.55571669E-04
  11852.372       0.14588289E-01   0.14588126E-01   0.14588130E-01   0.14588126E-01   0.16139520E-02   0.24812803E-03
  11852.872       0.15349871E-01   0.15349700E-01   0.15349704E-01   0.15349700E-01   0.23030381E-02   0.11810045E-02
  11853.372       0.16891327E-01   0.16891139E-01   0.16891143E-01   0.16891139E-01   0.27949565E-02   0.55327882E-03
  11853.872       0.18144827E-01   0.18144626E-01   0.18144630E-01   0.18144626E-01   0.28563169E-02  -0.28962124E-03
  11854.372       0.19747644E-01   0.19747425E-01   0.19747429E-01   0.19747425E-01   0.25053352E-02   0.41412249E-03
  11854.872       0.20650162E-01   0.20649934E-01   0.20649938E-01   0.20649934E-01   0.32704394E-02   0.83013686E-03
  11855.371       0.23014813E-01   0.23014559E-01   0.23014563E-01   0.23014559E-01   0.33346419E-02  -0.94109922E-04
  11855.871       0.23981470E-01   0.23981205E-01   0.23981209E-01   0.23981205E-01   0.31764236E-02   0.53818015E-03
  11856.371       0.26191236E-01   0.26190948E-01   0.26190952E-01   0.26190948E-01   0.38728221E-02   0.16685026E-02
  11856.871       0.27854292E-01   0.27853985E-01   0.27853989E-01   0.27853985E-01   0.48449262E-02   0.22282519E-02
  11857.371       0.31036163E-01   0.31035821E-01   0.31035825E-01   0.31035821E-01   0.61010740E-02   0.17178880E-02
  11857.871       0.33955366E-01   0.33954993E-01   0.33954997E-01   0.33954993E-01   0.65628142E-02   0.51427280E-04
  11858.371       0.37598977E-01   0.37598564E-01   0.37598568E-01   0.37598564E-01   0.61525013E-02   0.16476241E-02
  11858.871       0.40107867E-01   0.40107427E-01   0.40107431E-01   0.40107427E-01   0.82104383E-02   0.35034307E-02
  11859.371       0.45809415E-01   0.45808913E-01   0.45808917E-01   0.45808913E-01   0.96559320E-02   0.14560982E-02
  11859.871       0.49763799E-01   0.49763254E-01   0.49763258E-01   0.49763254E-01   0.96665365E-02   0.39059516E-02
  11860.371       0.55475951E-01   0.55475344E-01   0.55475348E-01   0.55475344E-01   0.13561884E-01   0.47193277E-02
  11860.871       0.63325683E-01   0.63324990E-01   0.63324994E-01   0.63324990E-01   0.14385864E-01   0.38428891E-02
  11861.371       0.69861816E-01   0.69861052E-01   0.69861056E-01   0.69861052E-01   0.17404773E-01   0.38893213E-02
  11861.871       0.80730455E-01   0.80729574E-01   0.80729578E-01   0.80729574E-01   0.18275185E-01   0.29084301E-02
  11862.371       0.88137001E-01   0.88136039E-01   0.88136043E-01   0.88136039E-01   0.20313203E-01   0.17205035E-01
  11862.871       0.10104366       0.10104256       0.10104256       0.10104256       0.35480221E-01   0.42645352E-01
  11863.371       0.12361722       0.12361587       0.12361588       0.12361587       0.62958555E-01   0.22394518E-01
  11863.871       0.16400221       0.16400043       0.16400043       0.16400043       0.57874739E-01   0.10468231E-02
  11864.370       0.18143409       0.18143211       0.18143211       0.18143211       0.64004331E-01   0.83340426E-01
  11864.870       0.22794254       0.22794006       0.22794006       0.22794006       0.14113182       0.17025394
  11865.370       0.32256591       0.32256240       0.32256240       0.32256240       0.23425827       0.13029423
  11865.870       0.46220081       0.46219579       0.46219579       0.46219579       0.27142606       0.15228683
  11866.370       0.59399197       0.59398550       0.59398551       0.59398550       0.38654511       0.33699053
  11866.870       0.84874592       0.84873669       0.84852509       0.84852509       0.60841659       0.25481360
  11867.370        1.2024086        1.1089453        1.2027401        1.1092899       0.64135870       0.33247482E-01
  11867.870        1.4901046        1.1042999        1.4909892        1.1052006       0.64166407      -0.40947237E-01
  11868.370        1.8440726        1.0997156        1.8455095        1.1011725       0.60041147      -0.33089411
  11868.870        2.0905161        1.0951919        2.0925065        1.0972050       0.31076996      -0.63931602
  11869.370        2.1548426        1.0907285        2.1573885        1.0932978      -0.38904548E-01  -0.71614236
  11869.870        2.0516115        1.0863249        2.0547147        1.0894504      -0.40537240      -0.56019978
  11870.370        1.7494702        1.0819807        1.7531328        1.0856624      -0.59910433      -0.19776807
  11870.870        1.4525072        1.0776955        1.4567292        1.0819333      -0.60314047       0.58648506E-01
  11871.370        1.1463297        1.0734687        1.1511113        1.0782627      -0.54045582       0.31719728
  11871.870       0.91205139        1.0693001       0.91739165        1.0746503      -0.28594319       0.47202576
  11872.370       0.86038653        1.0651891       0.86628354        1.0710955      -0.68430066E-01   0.28409566
  11872.870       0.84362132        1.0611354       0.85007468        1.0675980      -0.18475294E-02   0.11177325
  11873.370       0.85853900        1.0571385       0.86554838        1.0641572       0.43343186E-01   0.72395044E-01
  11873.869       0.88692117        1.0532058       0.89448530        1.0607796       0.70475119E-01   0.37115755E-01
  11874.369       0.92894365        1.0493212       0.93706350        1.0574511       0.80421825E-01   0.64659775E-03
  11874.869       0.96734299        1.0454920       0.97601860        1.0541782       0.71121717E-01  -0.22338820E-01
  11875.369        1.0000654        1.0417180        1.0092968        1.0509603       0.58083005E-01  -0.37043028E-01
  11875.869        1.0254260        1.0379987        1.0352133        1.0477972       0.34078689E-01  -0.48565479E-01
  11876.369        1.0341441        1.0343336        1.0444875        1.0446883       0.95175255E-02  -0.38956220E-01
  11876.869        1.0349435        1.0307223        1.0458431        1.0416332      -0.48775316E-02  -0.27134040E-01
  11877.369        1.0292665        1.0271644        1.0407224        1.0386315      -0.17616514E-01  -0.58600904E-02
  11877.869        1.0173270        1.0236595        1.0293391        1.0356827      -0.10737622E-01   0.20915849E-01
  11878.369        1.0185289        1.0202072        1.0310972        1.0327866       0.32993350E-02   0.11953167E-01
  11878.869        1.0206263        1.0168069        1.0337508        1.0299425       0.12155449E-02   0.44539001E-02
  11879.369        1.0197444        1.0134584        1.0334251        1.0271501       0.77532350E-02   0.11635642E-01
  11879.869        1.0283796        1.0101610        1.0426163        1.0244089       0.12851187E-01   0.24789933E-02
  11880.369        1.0325956        1.0069146        1.0473885        1.0217186       0.10232228E-01   0.73573834E-03
  11880.869        1.0386118        1.0037185        1.0539608        1.0190787       0.13586925E-01   0.52990684E-02
  11881.369        1.0461826        1.0005724        1.0620876        1.0164888       0.15531297E-01  -0.10073666E-02
  11881.869        1.0541431       0.99747580        1.0706043        1.0139484       0.12579559E-01  -0.59436731E-02
  11882.369        1.0587621       0.99442835        1.0757794        1.0114571       0.95876237E-02  -0.81967954E-02
  11882.868        1.0637211       0.99143554        1.0812934        1.0090194       0.43909600E-02  -0.15187522E-01
  11883.368        1.0631487       0.98848495        1.0812772        1.0066250      -0.55847112E-02  -0.16050423E-01
  11883.868        1.0581364       0.98558220        1.0768211        1.0042784      -0.11659463E-01  -0.16824422E-03
  11884.368        1.0514892       0.98272685        1.0707302        1.0019793      -0.57529554E-02   0.16582705E-01
  11884.868        1.0523835       0.97991849        1.0721806       0.99972706       0.49232411E-02   0.62287786E-02
  11885.368        1.0564125       0.97715668        1.0767657       0.99752143       0.47582320E-03  -0.12650709E-01
  11885.868        1.0528593       0.97444099        1.0737688       0.99536192      -0.77274680E-02  -0.11045577E-01
  11886.368        1.0486850       0.97177100        1.0701507       0.99324810      -0.10569754E-01   0.12726755E-02
  11886.868        1.0422895       0.96914628        1.0643115       0.99117956      -0.64547925E-02   0.14278288E-01
  11887.368        1.0422302       0.96656640        1.0648083       0.98915586       0.37085344E-02   0.97467163E-02
  11887.868        1.0459981       0.96403093        1.0691323       0.98717657       0.32919238E-02  -0.94561396E-02
  11888.368        1.0455221       0.96153945        1.0692126       0.98524127      -0.57476052E-02  -0.14448675E-01
  11888.868        1.0402505       0.95909153        1.0644972       0.98334952      -0.11156751E-01  -0.21951648E-02
  11889.368        1.0343654       0.95668674        1.0591683       0.98150091      -0.79427700E-02   0.44046019E-02
  11889.868        1.0323077       0.95432465        1.0576668       0.97969500      -0.67521492E-02  -0.18001043E-02
  11890.368        1.0276132       0.95200484        1.0535286       0.97793137      -0.97428744E-02  -0.76442586E-02
  11890.868        1.0225648       0.94972687        1.0490364       0.97620958      -0.14396408E-01  -0.46650939E-02
  11891.368        1.0132168       0.94749033        1.0402447       0.97452921      -0.14407968E-01  -0.29438690E-02
  11891.868        1.0081569       0.94529477        1.0357410       0.97288984      -0.17340277E-01  -0.17410413E-01
  11892.367       0.99589388       0.94314406        1.0240332       0.97129418      -0.31800970E-01  -0.13312737E-01
  11892.867       0.97638769       0.94102912        1.0050834       0.96973543      -0.30639702E-01  -0.18481149E-03
  11893.367       0.96525418       0.93895390       0.99450617       0.96821638      -0.31985782E-01  -0.33856331E-02
  11893.867       0.94440190       0.93691796       0.97421030       0.96673662      -0.34025335E-01  -0.52016537E-02
  11894.367       0.93122885       0.93492088       0.96159356       0.96529571      -0.37187436E-01  -0.27990976E-02
  11894.867       0.90721447       0.93296222       0.93813562       0.96389323      -0.36824432E-01   0.77962690E-02
  11895.367       0.89440441       0.93104156       0.92588188       0.96252875      -0.29391167E-01   0.53387834E-02
  11895.867       0.87782330       0.92915847       0.90985713       0.96120184      -0.31485649E-01   0.15285902E-02
  11896.367       0.86291876       0.92731252       0.89550893       0.95991207      -0.27862577E-01   0.47330506E-02
  11896.867       0.84996073       0.92550329       0.88310721       0.95865902      -0.26752598E-01   0.74486450E-02
  11897.367       0.83616617       0.92373035       0.86986898       0.95744225      -0.20413932E-01   0.75314137E-02
  11897.867       0.82954679       0.92199327       0.86380586       0.95626135      -0.19221185E-01  -0.51700381E-03
  11898.367       0.81694498       0.92029162       0.85176036       0.95511588      -0.20930935E-01   0.83217291E-02
  11898.867       0.80861586       0.91862497       0.84398750       0.95400541      -0.10899455E-01   0.11393474E-01
  11899.367       0.80604553       0.91699291       0.84197338       0.95292952      -0.95374616E-02   0.48571881E-02
  11899.867       0.79907840       0.91539499       0.83556250       0.95188778      -0.60422673E-02   0.17364302E-01
  11900.367       0.80000326       0.91383079       0.83704353       0.95087976       0.78268400E-02   0.13281501E-01
  11900.867       0.80690524       0.91229989       0.84450161       0.94990504       0.72392339E-02  -0.11809250E-01
  11901.366       0.80723525       0.91080482       0.84538669       0.94896503      -0.39706008E-02  -0.98662899E-02
  11901.866       0.80293861       0.90933915       0.84164627       0.94805554      -0.26171896E-02   0.77233571E-02
  11902.366       0.80461806       0.90790550       0.84388188       0.94717807       0.37527563E-02   0.10003779E-01
  11902.866       0.80669136       0.90650344       0.84651134       0.94633218       0.73865898E-02   0.73059039E-02
  11903.366       0.81200465       0.90513253       0.85238075       0.94551745       0.11058660E-01  -0.31442996E-02
  11903.866       0.81775002       0.90379234       0.85868223       0.94473344       0.42422901E-02  -0.10315757E-01
  11904.366       0.81624694       0.90248246       0.85773535       0.94397974       0.74290329E-03  -0.44359416E-02
  11904.866       0.81849293       0.90120245       0.86053749       0.94325591      -0.19365151E-03  -0.25631941E-02
  11905.366       0.81605329       0.89995189       0.85865405       0.94256152      -0.18202908E-02  -0.10304931E-02
  11905.866       0.81667264       0.89873034       0.85982957       0.94189615      -0.12241446E-02  -0.17539982E-02
  11906.366       0.81482915       0.89753738       0.85854228       0.94125937      -0.35742890E-02   0.11723000E-02
  11906.866       0.81309835       0.89637259       0.85736767       0.94065076      -0.51844600E-04   0.83386759E-02
  11907.366       0.81477730       0.89523553       0.85960279       0.94006988       0.47643869E-02   0.83351779E-02
  11907.866       0.81786273       0.89412578       0.86324437       0.93951630       0.82833333E-02   0.12056061E-02
  11908.366       0.82306064       0.89304290       0.86899839       0.93898960       0.59699930E-02  -0.34146719E-02
  11908.866       0.82383273       0.89198648       0.87032665       0.93848936       0.48686614E-02   0.42876715E-02
  11909.366       0.82792930       0.89095608       0.87497935       0.93801513       0.10257665E-01   0.77683097E-02
  11909.866       0.83409039       0.88995127       0.88169656       0.93756651       0.12636971E-01   0.79745626E-02
  11910.366       0.84056627       0.88897164       0.88872854       0.93714305       0.18232227E-01   0.85725080E-02
  11910.865       0.85230439       0.88801863       0.90102160       0.93674510       0.21200906E-01   0.11030952E-02
  11911.365       0.86174597       0.88708799       0.91101926       0.93637065       0.19334219E-01   0.41122415E-02
  11911.865       0.87163861       0.88618125       0.92146796       0.93602008       0.25313148E-01   0.36967546E-02
  11912.365       0.88705912       0.88529796       0.93744449       0.93569297       0.23030974E-01  -0.12425700E-01
  11912.865       0.89466958       0.88443770       0.94561104       0.93538889       0.12887448E-01  -0.59680534E-02
  11913.365       0.89994657       0.88360004       0.95144415       0.93510741       0.17062920E-01   0.10956509E-01
  11913.865       0.91173250       0.88278456       0.96378613       0.93484811       0.23843956E-01   0.48208134E-03
  11914.365       0.92379053       0.88199083       0.97640020       0.93461055       0.17545002E-01  -0.12327444E-01
  11914.865       0.92927750       0.88121841       0.98244330       0.93439431       0.11516512E-01  -0.62803267E-02
  11915.365       0.93530704       0.88046689       0.98902895       0.93419897       0.11264675E-01  -0.14102784E-03
  11915.865       0.94054218       0.87973583       0.99482020       0.93402408       0.11375484E-01  -0.94082959E-02
  11916.365       0.94668252       0.87902481        1.0015167       0.93386924       0.18563791E-02  -0.12699200E-01
  11916.865       0.94239856       0.87833339       0.99778892       0.93373400      -0.13237161E-02  -0.19900307E-02
  11917.365       0.94535881       0.87766116        1.0013053       0.93361794      -0.13365156E-03   0.11306687E-03
  11919.353       0.94206603       0.87516966        1.0002239       0.93333781      -0.10424057E-02  -0.13740105E-02
  11921.342       0.94121316       0.87294669        1.0015836       0.93332731      -0.55980913E-02  -0.24696609E-02
  11923.330       0.91980242       0.87096757       0.98238441       0.93355956      -0.10864247E-01  -0.16175590E-02
